deplacement (mm)	charge (N)

       0	       0
 0.02000	  0.9169
 0.04000	   2.139
 0.06000	   2.903
 0.08000	   3.667
  0.1000	   4.279
  0.1200	   5.043
  0.1400	   5.960
  0.1600	   7.029
  0.1800	   8.252
  0.2000	   9.169
  0.2200	  10.09 
  0.2400	  11.00 
  0.2600	  12.22 
  0.2800	  13.29 
  0.3000	  14.36 
  0.3200	  15.43 
  0.3400	  16.50 
  0.3600	  18.03 
  0.3800	  19.10 
  0.4000	  20.32 
  0.4200	  21.39 
  0.4400	  22.62 
  0.4600	  23.69 
  0.4800	  24.76 
  0.5000	  25.98 
  0.5200	  26.89 
  0.5400	  27.96 
  0.5600	  29.19 
  0.5800	  29.95 
  0.6000	  31.17 
  0.6200	  32.24 
  0.6400	  33.31 
  0.6600	  34.38 
  0.6800	  35.61 
  0.7000	  36.67 
  0.7200	  38.20 
  0.7400	  39.12 
  0.7600	  40.04 
  0.7800	  41.26 
  0.8000	  42.33 
  0.8200	  43.40 
  0.8400	  44.62 
  0.8600	  45.69 
  0.8800	  47.07 
  0.9000	  47.98 
  0.9200	  49.21 
  0.9400	  50.43 
  0.9600	  51.50 
  0.9800	  52.72 
   1.000	  53.94 
   1.020	  55.17 
   1.040	  56.69 
   1.060	  57.92 
   1.080	  58.99 
   1.100	  60.51 
   1.120	  62.04 
   1.140	  63.26 
   1.160	  64.79 
   1.180	  66.63 
   1.200	  68.31 
   1.220	  69.68 
   1.240	  71.36 
   1.260	  72.89 
   1.280	  74.42 
   1.300	  76.25 
   1.320	  78.09 
   1.340	  79.92 
   1.360	  81.60 
   1.380	  83.44 
   1.400	  85.27 
   1.420	  87.10 
   1.440	  88.94 
   1.460	  90.92 
   1.480	  92.91 
   1.500	  94.74 
   1.520	  96.27 
   1.540	  97.95 
   1.560	 100.1  
   1.580	 101.9  
   1.600	 103.9  
   1.620	 105.7  
   1.640	 107.6  
   1.660	 109.7  
   1.680	 111.7  
   1.700	 114.0  
   1.720	 116.0  
   1.740	 118.4  
   1.760	 120.3  
   1.780	 122.4  
   1.800	 124.5  
   1.820	 126.8  
   1.840	 129.3  
   1.860	 131.6  
   1.880	 133.9  
   1.900	 136.3  
   1.920	 138.4  
   1.940	 140.4  
   1.960	 143.0  
   1.980	 145.3  
   2.000	 147.8  
   2.020	 149.8  
   2.040	 152.7  
   2.060	 154.8  
   2.080	 157.2  
   2.100	 159.8  
   2.120	 162.1  
   2.140	 164.6  
   2.160	 167.2  
   2.180	 169.6  
   2.200	 171.9  
   2.220	 174.2  
   2.240	 177.0  
   2.260	 179.4  
   2.280	 181.8  
   2.300	 184.1  
   2.320	 186.6  
   2.340	 189.0  
   2.360	 191.3  
   2.380	 194.1  
   2.400	 196.7  
   2.420	 199.1  
   2.440	 201.7  
   2.460	 204.2  
   2.480	 206.8  
   2.500	 209.2  
   2.520	 212.1  
   2.540	 214.7  
   2.560	 217.1  
   2.580	 219.9  
   2.600	 222.6  
   2.620	 225.2  
   2.640	 227.8  
   2.660	 230.4  
   2.680	 233.2  
   2.700	 235.8  
   2.720	 238.8  
   2.740	 241.4  
   2.760	 244.2  
   2.780	 246.8  
   2.800	 249.4  
   2.820	 252.0  
   2.840	 254.6  
   2.860	 257.5  
   2.880	 260.1  
   2.900	 263.1  
   2.920	 265.7  
   2.940	 268.3  
   2.960	 270.9  
   2.980	 273.5  
   3.000	 276.3  
   3.020	 278.7  
   3.040	 281.8  
   3.060	 284.2  
   3.080	 286.8  
   3.100	 289.7  
   3.120	 292.5  
   3.140	 294.9  
   3.160	 297.7  
   3.180	 300.6  
   3.200	 303.2  
   3.220	 305.9  
   3.240	 308.7  
   3.260	 311.4  
   3.280	 314.3  
   3.300	 316.9  
   3.320	 319.5  
   3.340	 322.1  
   3.360	 324.9  
   3.380	 327.5  
   3.400	 330.1  
   3.420	 332.7  
   3.440	 335.6  
   3.460	 338.2  
   3.480	 340.8  
   3.500	 343.4  
   3.520	 346.1  
   3.540	 348.7  
   3.560	 351.5  
   3.580	 354.1  
   3.600	 356.8  
   3.620	 359.4  
   3.640	 362.2  
   3.660	 364.6  
   3.680	 367.4  
   3.700	 370.1  
   3.720	 372.9  
   3.740	 375.6  
   3.760	 378.2  
   3.780	 381.0  
   3.800	 383.6  
   3.820	 386.0  
   3.840	 388.4  
   3.860	 391.4  
   3.880	 394.1  
   3.900	 396.7  
   3.920	 399.1  
   3.940	 401.4  
   3.960	 404.0  
   3.980	 406.6  
   4.000	 409.4  
   4.020	 411.8  
   4.040	 414.4  
   4.060	 417.2  
   4.080	 419.8  
   4.100	 422.2  
   4.120	 424.5  
   4.140	 427.1  
   4.160	 429.9  
   4.180	 432.2  
   4.200	 434.6  
   4.220	 437.0  
   4.240	 439.5  
   4.260	 441.9  
   4.280	 444.4  
   4.300	 446.7  
   4.320	 449.0  
   4.340	 451.4  
   4.360	 453.7  
   4.380	 456.1  
   4.400	 458.6  
   4.420	 461.0  
   4.440	 463.3  
   4.460	 465.8  
   4.480	 468.1  
   4.500	 470.2  
   4.520	 472.6  
   4.540	 474.8  
   4.560	 477.2  
   4.580	 479.5  
   4.600	 481.5  
   4.620	 483.6  
   4.640	 486.1  
   4.660	 488.2  
   4.680	 490.5  
   4.700	 492.5  
   4.720	 495.0  
   4.740	 497.1  
   4.760	 499.1  
   4.780	 500.6  
   4.800	 502.1  
   4.820	 504.1  
   4.840	 506.1  
   4.860	 508.1  
   4.880	 509.9  
   4.900	 511.8  
   4.920	 513.6  
   4.940	 515.7  
   4.960	 517.6  
   4.980	 519.4  
   5.000	 521.5  
   5.020	 523.5  
   5.040	 525.5  
   5.060	 527.0  
   5.080	 529.0  
   5.100	 530.9  
   5.120	 532.5  
   5.140	 534.2  
   5.160	 536.1  
   5.180	 537.9  
   5.200	 539.7  
   5.220	 541.3  
   5.240	 543.1  
   5.260	 544.6  
   5.280	 546.3  
   5.300	 548.0  
   5.320	 549.7  
   5.340	 551.3  
   5.360	 553.0  
   5.380	 554.6  
   5.400	 556.1  
   5.420	 557.8  
   5.440	 559.3  
   5.460	 561.0  
   5.480	 562.5  
   5.500	 564.2  
   5.520	 565.7  
   5.540	 567.2  
   5.560	 568.6  
   5.580	 570.1  
   5.600	 571.5  
   5.620	 573.0  
   5.640	 574.6  
   5.660	 576.1  
   5.680	 577.5  
   5.700	 578.7  
   5.720	 580.4  
   5.740	 581.4  
   5.760	 583.0  
   5.780	 584.0  
   5.800	 585.6  
   5.820	 586.9  
   5.840	 588.3  
   5.860	 589.5  
   5.880	 590.9  
   5.900	 592.0  
   5.920	 593.4  
   5.940	 595.0  
   5.960	 596.1  
   5.980	 597.3  
   6.000	 598.6  
   6.020	 599.9  
   6.040	 601.0  
   6.060	 601.9  
   6.080	 603.1  
   6.100	 604.4  
   6.120	 605.4  
   6.140	 606.5  
   6.160	 607.7  
   6.180	 608.8  
   6.200	 609.9  
   6.220	 610.9  
   6.240	 612.0  
   6.260	 612.9  
   6.280	 614.0  
   6.300	 614.6  
   6.320	 615.4  
   6.340	 616.1  
   6.360	 616.9  
   6.380	 617.7  
   6.400	 618.7  
   6.420	 619.5  
   6.440	 620.1  
   6.460	 621.0  
   6.480	 621.6  
   6.500	 622.6  
   6.520	 623.5  
   6.540	 624.4  
   6.560	 625.0  
   6.580	 625.9  
   6.600	 626.7  
   6.620	 627.0  
   6.640	 627.6  
   6.660	 628.2  
   6.680	 629.0  
   6.700	 629.7  
   6.720	 630.5  
   6.740	 631.3  
   6.760	 631.9  
   6.780	 632.2  
   6.800	 632.6  
   6.820	 633.3  
   6.840	 634.0  
   6.860	 634.5  
   6.880	 634.9  
   6.900	 635.7  
   6.920	 636.3  
   6.940	 636.8  
   6.960	 636.9  
   6.980	 636.8  
   7.000	 636.6  
   7.020	 636.6  
   7.040	 636.3  
   7.060	 636.0  
   7.080	 635.7  
   7.100	 635.5  
   7.120	 635.5  
   7.140	 635.5  
   7.160	 635.5  
   7.180	 635.5  
   7.200	 635.4  
   7.220	 635.1  
   7.240	 635.1  
   7.260	 635.1  
   7.280	 635.1  
   7.300	 635.1  
   7.320	 635.1  
   7.340	 635.1  
   7.360	 635.2  
   7.380	 635.5  
   7.400	 636.0  
   7.420	 636.5  
   7.440	 636.9  
   7.460	 637.4  
   7.480	 637.7  
   7.500	 638.4  
   7.520	 639.1  
   7.540	 639.7  
   7.560	 640.4  
   7.580	 640.9  
   7.600	 641.5  
   7.620	 641.8  
   7.640	 642.1  
   7.660	 642.6  
   7.680	 643.2  
   7.700	 643.6  
   7.720	 644.1  
   7.740	 644.4  
   7.760	 644.6  
   7.780	 644.7  
   7.800	 644.7  
   7.820	 644.7  
   7.840	 644.7  
   7.860	 644.6  
   7.880	 644.6  
   7.900	 644.4  
   7.920	 644.3  
   7.940	 643.8  
   7.960	 643.5  
   7.980	 643.2  
   8.000	 642.9  
   8.020	 642.0  
   8.040	 641.0  
   8.060	 640.0  
   8.080	 639.1  
   8.100	 637.7  
   8.120	 636.6  
   8.140	 635.2  
   8.160	 634.3  
   8.180	 633.1  
   8.200	 632.2  
   8.220	 631.1  
   8.240	 630.0  
   8.260	 629.1  
   8.280	 628.2  
   8.300	 627.4  
   8.320	 626.7  
   8.340	 626.1  
   8.360	 625.5  
   8.380	 624.7  
   8.400	 624.2  
   8.420	 623.9  
   8.440	 623.6  
   8.460	 623.5  
   8.480	 623.3  
   8.500	 623.2  
   8.520	 623.0  
   8.540	 622.9  
   8.560	 622.9  
   8.580	 622.7  
   8.600	 622.6  
   8.620	 622.7  
   8.640	 622.9  
   8.660	 623.0  
   8.680	 623.0  
   8.700	 623.0  
   8.720	 623.2  
   8.740	 623.2  
   8.760	 623.2  
   8.780	 623.2  
   8.800	 623.2  
   8.820	 623.0  
   8.840	 622.4  
   8.860	 621.8  
   8.880	 620.9  
   8.900	 619.7  
   8.920	 617.7  
   8.940	 612.8  
   8.960	 604.2  

